File: TGA-data.csv
##Temp./ï¿½C;Time/min;Mass/%
 32.40400;0.0000e+000;100
 34.90400;    1.02148; 99.95576
 37.40400;    1.47499; 99.94883
 39.90400;    1.82060; 99.93511
 42.40400;    2.11867; 99.91851
 44.90400;    2.38781; 99.90270
 47.40400;    2.64007; 99.88692
 49.90400;    2.88156; 99.86940
 52.40400;    3.11306; 99.84290
 54.90400;    3.34006; 99.81233
 57.40400;    3.56310; 99.77606
 59.90400;    3.78323; 99.73556
 62.40400;    4.00179; 99.69041
 64.90400;    4.21963; 99.63854
 67.40400;    4.43822; 99.58703
 69.90400;    4.65682; 99.53585
 72.40400;    4.87652; 99.48048
 74.90400;    5.09569; 99.42277
 77.40400;    5.31560; 99.34637
 79.90400;    5.53708; 99.26474
 82.40400;    5.75984; 99.18627
 84.90400;    5.98456; 99.10564
 87.40400;    6.21102; 99.04141
 89.90400;    6.43788; 98.98122
 92.40400;    6.66640; 98.92173
 94.90400;    6.89679; 98.85956
 97.40400;    7.12794; 98.79064
 99.90400;    7.36188; 98.72974
102.404;    7.59715; 98.67765
104.904;    7.83367; 98.61606
107.404;    8.07235; 98.55671
109.904;    8.31175; 98.50719
112.404;    8.55219; 98.45028
114.904;    8.79301; 98.41084
117.404;    9.03509; 98.33255
119.904;    9.27850; 98.20777
122.404;    9.52307; 98.05036
124.904;    9.76682; 97.84756
127.404;   10.01032; 97.59852
129.904;   10.25455; 97.29694
132.404;   10.49895; 96.91245
134.904;   10.74359; 96.43578
137.404;   10.98787; 95.86479
139.904;   11.23280; 95.19493
142.404;   11.47890; 94.43377
144.904;   11.72474; 93.58631
147.404;   11.97011; 92.65423
149.904;   12.21607; 91.65327
152.404;   12.46084; 90.61288
154.904;   12.70555; 89.56380
157.404;   12.95178; 88.53904
159.904;   13.19811; 87.56623
162.404;   13.44413; 86.66774
164.904;   13.68981; 85.87016
167.404;   13.93561; 85.17379
169.904;   14.18194; 84.57431
172.404;   14.42845; 84.06438
174.904;   14.67447; 83.63733
177.404;   14.92136; 83.28794
179.904;   15.16842; 82.99449
182.404;   15.41651; 82.73566
184.904;   15.66569; 82.50145
187.404;   15.91440; 82.28321
189.904;   16.16335; 82.07258
192.404;   16.41335; 81.87372
194.904;   16.66321; 81.68424
197.404;   16.91239; 81.47923
199.904;   17.16291; 81.27434
202.404;   17.41285; 81.04310
204.904;   17.66223; 80.83789
207.404;   17.91166; 80.62587
209.904;   18.16233; 80.41112
212.404;   18.41204; 80.18568
214.904;   18.66167; 79.93250
217.404;   18.91223; 79.64522
219.904;   19.16199; 79.29403
222.404;   19.41222; 78.83765
224.904;   19.66308; 78.25117
227.404;   19.91245; 77.56086
229.904;   20.16226; 76.70040
232.404;   20.41246; 75.79746
234.904;   20.66236; 74.82454
237.404;   20.91210; 73.81648
239.904;   21.16095; 72.74920
242.404;   21.40978; 71.58058
244.904;   21.65806; 70.25792
247.404;   21.90662; 68.72276
249.904;   22.15572; 66.88212
252.404;   22.40430; 64.79191
254.904;   22.65410; 62.33244
257.404;   22.90607; 59.40687
259.904;   23.16278; 56.04489
262.404;   23.42060; 52.51537
264.904;   23.67430; 49.25482
267.404;   23.92410; 46.42865
269.904;   24.17169; 43.99844
272.404;   24.41799; 41.93112
274.904;   24.66350; 40.16034
277.404;   24.90913; 38.57590
279.904;   25.15515; 37.15838
282.404;   25.40155; 35.86877
284.904;   25.64817; 34.70875
287.404;   25.89599; 33.64772
289.904;   26.14446; 32.68058
292.404;   26.39265; 31.81031
294.904;   26.64147; 31.02759
297.404;   26.89130; 30.32129
299.904;   27.14176; 29.69702
302.404;   27.39162; 29.14600
304.904;   27.64157; 28.68261
307.404;   27.89138; 28.30474
309.904;   28.14155; 27.99625
312.404;   28.39182; 27.75379
314.904;   28.64167; 27.53577
317.404;   28.89156; 27.34386
319.904;   29.14169; 27.15229
322.404;   29.39127; 26.97483
324.904;   29.64145; 26.80690
327.404;   29.89148; 26.64433
329.904;   30.14111; 26.49207
332.404;   30.39123; 26.33950
334.904;   30.64148; 26.19978
337.404;   30.89174; 26.06901
339.904;   31.14132; 25.94329
342.404;   31.39088; 25.82552
344.904;   31.64083; 25.69788
347.404;   31.89103; 25.58148
349.904;   32.14076; 25.46310
352.404;   32.39095; 25.34300
354.904;   32.64070; 25.23009
357.404;   32.89076; 25.13056
359.904;   33.14071; 25.02446
362.404;   33.39063; 24.92403
364.904;   33.64032; 24.80162
367.404;   33.88998; 24.68129
369.904;   34.14008; 24.56728
372.404;   34.39070; 24.46521
374.904;   34.64066; 24.36536
377.404;   34.89021; 24.27511
379.904;   35.13988; 24.18074
382.404;   35.38963; 24.08500
384.904;   35.63945; 23.98746
387.404;   35.88918; 23.88137
389.904;   36.13876; 23.79008
392.404;   36.38849; 23.69793
394.904;   36.63871; 23.61989
397.404;   36.88818; 23.54819
399.904;   37.13778; 23.46309
402.404;   37.38720; 23.38204
404.904;   37.63719; 23.29385
407.404;   37.88702; 23.21505
409.904;   38.13670; 23.14976
412.404;   38.38618; 23.08440
414.904;   38.63593; 23.01952
417.404;   38.88499; 22.95136
419.904;   39.13509; 22.88498
422.404;   39.38501; 22.81567
424.904;   39.63512; 22.74137
427.404;   39.88507; 22.65753
429.904;   40.13533; 22.60259
432.404;   40.38531; 22.54784
434.904;   40.63514; 22.50216
437.404;   40.88516; 22.44531
439.904;   41.13411; 22.36673
442.404;   41.38419; 22.29172
444.904;   41.63365; 22.21462
447.404;   41.88386; 22.13644
449.904;   42.13436; 22.06421
452.404;   42.38513; 21.98978
454.904;   42.63531; 21.91089
457.404;   42.88527; 21.84161
459.904;   43.13530; 21.76439
462.404;   43.38552; 21.70187
464.904;   43.63518; 21.64049
467.404;   43.88432; 21.58662
469.904;   44.13417; 21.53061
472.404;   44.38404; 21.46236
474.904;   44.63432; 21.37397
477.404;   44.88507; 21.29967
479.904;   45.13444; 21.22567
482.404;   45.38379; 21.16702
484.904;   45.63402; 21.12141
487.404;   45.88389; 21.05878
489.904;   46.13380; 21.00588
492.404;   46.38328; 20.95650
494.904;   46.63280; 20.90275
497.404;   46.88268; 20.84380
499.904;   47.13254; 20.78764
502.404;   47.38273; 20.73829
504.904;   47.63255; 20.69371
507.404;   47.88248; 20.65238
509.904;   48.13263; 20.60765
512.404;   48.38194; 20.56378
514.904;   48.63201; 20.51493
517.404;   48.88151; 20.45825
519.904;   49.13163; 20.40775
522.404;   49.38133; 20.35486
524.904;   49.63112; 20.30320
527.404;   49.88120; 20.25626
529.904;   50.13115; 20.20079
532.404;   50.38135; 20.14673
534.904;   50.63154; 20.10229
537.404;   50.88106; 20.05414
539.904;   51.13096; 20.00980
542.404;   51.38104; 19.96727
544.904;   51.63071; 19.93522
547.404;   51.88057; 19.90692
549.904;   52.13022; 19.87095
552.404;   52.38021; 19.82501
554.904;   52.63008; 19.77679
557.404;   52.88015; 19.73648
559.904;   53.13107; 19.69663
562.404;   53.38135; 19.65220
564.904;   53.63128; 19.61806
567.404;   53.88052; 19.58188
569.904;   54.12999; 19.55354
572.404;   54.38005; 19.52084
574.904;   54.63063; 19.49658
577.404;   54.88080; 19.47186
579.904;   55.13067; 19.45021
582.404;   55.38060; 19.42080
584.904;   55.63024; 19.39468
587.404;   55.88027; 19.36170
589.904;   56.13035; 19.32984
592.404;   56.38089; 19.30250
594.904;   56.63068; 19.27619
597.404;   56.88088; 19.26812